多参数水体组份原位光谱分析系统保存数据

保存时间：2018年9月19日 星期三 11:36:48-447
数据个数：2048

波长/nm	DN值
187.5428	49
187.9263	49
188.3100	49
188.6936	49
189.0773	49
189.4610	49
189.8448	49
190.2286	49
190.6124	49
190.9963	39
191.3802	45
191.7642	45
192.1482	53
192.5322	54
192.9163	49
193.3004	46
193.6846	44
194.0687	49
194.4530	50
194.8372	44
195.2215	48
195.6059	51
195.9903	43
196.3747	53
196.7591	55
197.1437	57
197.5282	53
197.9128	41
198.2974	43
198.6820	47
199.0667	56
199.4514	51
199.8362	51
200.2210	51
200.6059	60
200.9907	61
201.3757	66
201.7606	63
202.1456	64
202.5307	68
202.9157	63
203.3008	66
203.6860	51
204.0712	56
204.4564	54
204.8417	46
205.2270	58
205.6123	54
205.9977	60
206.3831	64
206.7686	58
207.1541	55
207.5396	60
207.9251	79
208.3107	82
208.6964	74
209.0821	73
209.4678	76
209.8536	83
210.2393	74
210.6252	69
211.0110	78
211.3970	74
211.7829	76
212.1689	75
212.5549	90
212.9410	97
213.3271	94
213.7132	102
214.0994	112
214.4856	109
214.8719	119
215.2581	123
215.6445	128
216.0308	130
216.4172	144
216.8036	145
217.1901	154
217.5766	165
217.9632	177
218.3498	195
218.7364	222
219.1231	251
219.5098	268
219.8965	278
220.2832	288
220.6701	315
221.0569	358
221.4438	395
221.8307	439
222.2177	495
222.6047	515
222.9917	556
223.3788	613
223.7659	678
224.1530	759
224.5402	871
224.9274	998
225.3147	1133
225.7020	1290
226.0893	1471
226.4767	1678
226.8641	1897
227.2515	2109
227.6390	2321
228.0265	2538
228.4141	2771
228.8017	2981
229.1893	3204
229.5770	3342
229.9647	3342
230.3524	3274
230.7402	3149
231.1280	2981
231.5158	2846
231.9037	2733
232.2916	2655
232.6796	2616
233.0676	2592
233.4556	2607
233.8437	2617
234.2318	2617
234.6199	2674
235.0081	2691
235.3963	2700
235.7846	2752
236.1729	2793
236.5612	2794
236.9496	2835
237.3380	2906
237.7264	3021
238.1149	3160
238.5034	3306
238.8919	3481
239.2805	3717
239.6691	3967
240.0578	4165
240.4465	4372
240.8352	4656
241.2239	4928
241.6127	5183
242.0016	5451
242.3905	5720
242.7793	5930
243.1683	6065
243.5573	6126
243.9463	6123
244.3353	6093
244.7244	6048
245.1136	6102
245.5027	6252
245.8919	6422
246.2811	6676
246.6704	7003
247.0597	7220
247.4491	7308
247.8384	7260
248.2279	6961
248.6173	6532
249.0068	6017
249.3963	5573
249.7859	5207
250.1754	4849
250.5651	4586
250.9547	4448
251.3444	4322
251.7342	4245
252.1239	4183
252.5138	4139
252.9036	4086
253.2935	4005
253.6834	3889
254.0733	3746
254.4633	3722
254.8533	3764
255.2434	3806
255.6335	3951
256.0236	4138
256.4138	4317
256.8040	4582
257.1942	4907
257.5845	5251
257.9748	5578
258.3651	5910
258.7555	6184
259.1459	6392
259.5364	6660
259.9268	6913
260.3174	7036
260.7079	7002
261.0985	6787
261.4892	6347
261.8798	5919
262.2705	5594
262.6612	5315
263.0520	5106
263.4428	4938
263.8336	4807
264.2245	4704
264.6154	4649
265.0063	4623
265.3973	4632
265.7883	4674
266.1794	4770
266.5705	4875
266.9616	4961
267.3528	5095
267.7439	5194
268.1352	5239
268.5264	5300
268.9177	5391
269.3091	5403
269.7004	5456
270.0918	5505
270.4832	5502
270.8747	5617
271.2662	5750
271.6577	5789
272.0493	5835
272.4409	5792
272.8326	5676
273.2242	5508
273.6159	5314
274.0077	5164
274.3994	5119
274.7913	5116
275.1831	5152
275.5750	5177
275.9669	5184
276.3589	5268
276.7509	5349
277.1429	5375
277.5349	5468
277.9270	5596
278.3192	5721
278.7113	5799
279.1035	5874
279.4958	6045
279.8880	6279
280.2803	6496
280.6726	6750
281.0650	7046
281.4574	7368
281.8499	7677
282.2423	7934
282.6348	8193
283.0274	8427
283.4200	8552
283.8126	8680
284.2052	8834
284.5979	8998
284.9906	9207
285.3833	9412
285.7761	9583
286.1689	9791
286.5617	10014
286.9546	10136
287.3476	10104
287.7405	10171
288.1335	10234
288.5265	10276
288.9196	10349
289.3127	10434
289.7058	10529
290.0989	10823
290.4921	11083
290.8853	11288
291.2786	11396
291.6718	11428
292.0652	11509
292.4586	11567
292.8519	11547
293.2454	11722
293.6388	11975
294.0323	12232
294.4258	12547
294.8194	12852
295.2130	13073
295.6066	13249
296.0003	13334
296.3940	13385
296.7877	13341
297.1815	13362
297.5753	13331
297.9691	13135
298.3629	12736
298.7568	12244
299.1508	11819
299.5447	11510
299.9387	11165
300.3327	10838
300.7268	10581
301.1209	10387
301.5150	10223
301.9092	10122
302.3034	10038
302.6976	9971
303.0919	9864
303.4862	9718
303.8805	9646
304.2749	9661
304.6693	9600
305.0637	9586
305.4582	9656
305.8527	9774
306.2472	9883
306.6418	10075
307.0363	10245
307.4309	10366
307.8256	10564
308.2203	10760
308.6150	10931
309.0098	11152
309.4046	11300
309.7994	11454
310.1943	11765
310.5892	11944
310.9841	11973
311.3791	12031
311.7740	12154
312.1691	12315
312.5641	12336
312.9592	12295
313.3544	12234
313.7495	12321
314.1447	12428
314.5399	12519
314.9352	12581
315.3305	12569
315.7258	12480
316.1211	12235
316.5165	12083
316.9119	11927
317.3074	11723
317.7029	11745
318.0984	11711
318.4939	11723
318.8895	11797
319.2851	11881
319.6808	11961
320.0764	12110
320.4722	12294
320.8679	12369
321.2637	12396
321.6595	12495
322.0553	12648
322.4512	12801
322.8471	13009
323.2430	13263
323.6390	13457
324.0350	13644
324.4310	13696
324.8271	13693
325.2232	13621
325.6194	13462
326.0155	13241
326.4117	13088
326.8079	12872
327.2042	12673
327.6005	12553
327.9968	12435
328.3931	12207
328.7896	12035
329.1860	11932
329.5824	11930
329.9789	11875
330.3754	11855
330.7720	11832
331.1685	11867
331.5651	11831
331.9618	11775
332.3585	11766
332.7552	11789
333.1519	11770
333.5486	11680
333.9455	11627
334.3423	11595
334.7392	11516
335.1361	11415
335.5331	11374
335.9300	11385
336.3270	11331
336.7240	11263
337.1211	11289
337.5182	11345
337.9153	11365
338.3124	11404
338.7096	11430
339.1068	11437
339.5041	11441
339.9013	11435
340.2987	11443
340.6960	11501
341.0934	11584
341.4908	11639
341.8882	11791
342.2857	11946
342.6832	12119
343.0807	12423
343.4783	12663
343.8759	12871
344.2735	13162
344.6711	13419
345.0688	13632
345.4666	13826
345.8643	13867
346.2621	14024
346.6599	14060
347.0578	14003
347.4556	13983
347.8535	13999
348.2515	14170
348.6494	14399
349.0474	14604
349.4454	14852
349.8435	15101
350.2416	15323
350.6397	15543
351.0379	15858
351.4361	16118
351.8343	16388
352.2325	16736
352.6308	17140
353.0291	17680
353.4275	18165
353.8258	18833
354.2242	19446
354.6227	19902
355.0211	20522
355.4196	21103
355.8182	21591
356.2167	22170
356.6153	22647
357.0139	23005
357.4126	23592
357.8112	24112
358.2100	24388
358.6087	24503
359.0074	24694
359.4063	24841
359.8051	25005
360.2040	25434
360.6028	25947
361.0018	26424
361.4007	26806
361.7997	26708
362.1988	26331
362.5978	25587
362.9969	24653
363.3960	23673
363.7951	22876
364.1942	22264
364.5935	21834
364.9927	21444
365.3919	21105
365.7913	20794
366.1906	20697
366.5899	20437
366.9893	20234
367.3887	20036
367.7882	19826
368.1876	19684
368.5871	19537
368.9867	19427
369.3862	19363
369.7858	19345
370.1854	19342
370.5851	19339
370.9847	19432
371.3845	19526
371.7842	19585
372.1840	19580
372.5838	19625
372.9836	19748
373.3835	19799
373.7834	19847
374.1833	19931
374.5833	19970
374.9832	20025
375.3832	20077
375.7833	20101
376.1833	20179
376.5835	20274
376.9836	20326
377.3838	20297
377.7839	20209
378.1842	19944
378.5844	19580
378.9847	19245
379.3850	19254
379.7853	19254
380.1857	19240
380.5861	19408
380.9865	19544
381.3870	19662
381.7875	19787
382.1880	19881
382.5885	20033
382.9891	20275
383.3897	20726
383.7903	21021
384.1910	21175
384.5917	21350
384.9924	21497
385.3932	21689
385.7939	21938
386.1947	22300
386.5956	22640
386.9965	22968
387.3974	23389
387.7983	23825
388.1993	24371
388.6003	24907
389.0013	25476
389.4023	26093
389.8034	26795
390.2045	27545
390.6056	28116
391.0068	28733
391.4079	29263
391.8091	29702
392.2104	29931
392.6117	30131
393.0130	30151
393.4144	30190
393.8157	30085
394.2171	30053
394.6186	30004
395.0200	29846
395.4214	29851
395.8230	29687
396.2245	29558
396.6261	29557
397.0276	29773
397.4293	30080
397.8309	30234
398.2326	30495
398.6344	30710
399.0361	30987
399.4379	31254
399.8396	31559
400.2415	31982
400.6433	32518
401.0452	32970
401.4471	33428
401.8490	34047
402.2510	34539
402.6530	34993
403.0551	35568
403.4571	35994
403.8592	36443
404.2613	37023
404.6635	37400
405.0656	37668
405.4678	37951
405.8700	38021
406.2723	38070
406.6745	38328
407.0768	38449
407.4792	38666
407.8816	38814
408.2840	39061
408.6864	39360
409.0888	39968
409.4913	40286
409.8939	40544
410.2964	40989
410.6989	41204
411.1015	41280
411.5042	41393
411.9068	41517
412.3094	41560
412.7122	41821
413.1149	42058
413.5177	42220
413.9205	42576
414.3233	43215
414.7262	43708
415.1290	44167
415.5319	44836
415.9348	45482
416.3378	46268
416.7408	47139
417.1438	48040
417.5468	49841
417.9499	50427
418.3530	52087
418.7561	53423
419.1593	54523
419.5624	55308
419.9657	55818
420.3689	56130
420.7722	56336
421.1754	56483
421.5788	56577
421.9821	56626
422.3855	56657
422.7889	56675
423.1923	56691
423.5958	56695
423.9993	56708
424.4028	56700
424.8063	56682
425.2099	56640
425.6135	56571
426.0171	56390
426.4207	55820
426.8244	55156
427.2281	54646
427.6319	54083
428.0356	52845
428.4394	51901
428.8432	51245
429.2471	50506
429.6509	49879
430.0548	49269
430.4588	48807
430.8627	48383
431.2667	48012
431.6707	47681
432.0747	47525
432.4788	47629
432.8829	47562
433.2870	47441
433.6911	47393
434.0953	47374
434.4995	47384
434.9037	47296
435.3080	47359
435.7122	47409
436.1165	47509
436.5209	47602
436.9252	47724
437.3296	48078
437.7340	48371
438.1384	48729
438.5429	49121
438.9474	50009
439.3519	50071
439.7564	50551
440.1610	51297
440.5656	51349
440.9703	51116
441.3749	51645
441.7796	51165
442.1843	50546
442.5890	50421
442.9938	50033
443.3986	49682
443.8034	49282
444.2082	49039
444.6131	49235
445.0179	49539
445.4229	49519
445.8279	50225
446.2328	50538
446.6378	50619
447.0428	51002
447.4479	51327
447.8530	51033
448.2581	50478
448.6632	50526
449.0684	50356
449.4735	50097
449.8787	50050
450.2840	50080
450.6893	49718
451.0945	49489
451.4998	49511
451.9052	49576
452.3105	49483
452.7160	49238
453.1214	49033
453.5268	48754
453.9323	48532
454.3378	48261
454.7433	48045
455.1488	48138
455.5544	48559
455.9601	48877
456.3657	49355
456.7713	50799
457.1770	51722
457.5827	52798
457.9884	53882
458.3942	54858
458.8000	55479
459.2058	55891
459.6116	56154
460.0175	56309
460.4234	56382
460.8293	56335
461.2352	56116
461.6412	55334
462.0472	54326
462.4532	53901
462.8592	53303
463.2653	53018
463.6714	52416
464.0775	52665
464.4836	51859
464.8898	52693
465.2960	52862
465.7022	51920
466.1085	52377
466.5148	51994
466.9211	51883
467.3274	52384
467.7337	51916
468.1401	51192
468.5465	51141
468.9529	50394
469.3594	50382
469.7659	49988
470.1724	49779
470.5789	49978
470.9854	50138
471.3921	49869
471.7986	49670
472.2053	50234
472.6119	50219
473.0186	50878
473.4253	50918
473.8320	50762
474.2388	51621
474.6456	51526
475.0524	51056
475.4592	51739
475.8661	52448
476.2729	52988
476.6798	53462
477.0868	54022
477.4937	54828
477.9007	55333
478.3077	55745
478.7148	56052
479.1218	56267
479.5289	56401
479.9360	56481
480.3431	56556
480.7503	56608
481.1575	56636
481.5647	56663
481.9719	56662
482.3792	56668
482.7865	56672
483.1937	56679
483.6011	56674
484.0084	56679
484.4158	56685
484.8232	56689
485.2307	56695
485.6381	56697
486.0456	56696
486.4531	56709
486.8606	56703
487.2681	56700
487.6758	56709
488.0833	56719
488.4910	56729
488.8986	56730
489.3063	56735
489.7140	56735
490.1217	56748
490.5294	56751
490.9372	56749
491.3450	56748
491.7528	56754
492.1607	56767
492.5685	56751
492.9765	56729
493.3844	56680
493.7923	56434
494.2003	55525
494.6082	54024
495.0163	53350
495.4243	52612
495.8324	51940
496.2405	51428
496.6486	50926
497.0567	50464
497.4649	49932
497.8730	49343
498.2813	48655
498.6895	47959
499.0978	47357
499.5061	46632
499.9144	45986
500.3227	45476
500.7310	44915
501.1394	44439
501.5479	43902
501.9562	43673
502.3647	43648
502.7732	43372
503.1816	43098
503.5901	42927
503.9987	42958
504.4073	42677
504.8159	42266
505.2245	41901
505.6331	41625
506.0418	41608
506.4505	41391
506.8592	41156
507.2679	41030
507.6767	40801
508.0854	40858
508.4943	41099
508.9031	41137
509.3120	41167
509.7208	41176
510.1297	41163
510.5386	41114
510.9476	41187
511.3565	41164
511.7656	41100
512.1746	41047
512.5836	40881
512.9927	40875
513.4017	40924
513.8109	40853
514.2200	40817
514.6292	40834
515.0383	40946
515.4475	40964
515.8568	41270
516.2661	41643
516.6753	42044
517.0845	42275
517.4939	42667
517.9033	42958
518.3126	43215
518.7220	43173
519.1314	42941
519.5409	42485
519.9503	41959
520.3598	41588
520.7693	41296
521.1788	41036
521.5884	41208
521.9980	41374
522.4075	41738
522.8172	42093
523.2268	42884
523.6365	43717
524.0462	44325
524.4559	45198
524.8656	46348
525.2754	48837
525.6852	50176
526.0950	52524
526.5048	54063
526.9146	55063
527.3245	55687
527.7344	56076
528.1443	56316
528.5543	56468
528.9642	56540
529.3742	56545
529.7842	56468
530.1942	55994
530.6042	53986
531.0143	52262
531.4244	51192
531.8345	50788
532.2447	50673
532.6548	50444
533.0651	50792
533.4753	51288
533.8855	50558
534.2957	49681
534.7060	48803
535.1163	47780
535.5267	46740
535.9370	46191
536.3474	46123
536.7578	46002
537.1682	45862
537.5786	45871
537.9891	45866
538.3995	45982
538.8101	46422
539.2205	47012
539.6311	47753
540.0416	49330
540.4523	49784
540.8628	51745
541.2735	52740
541.6841	53173
542.0948	52260
542.5055	50842
542.9161	49287
543.3269	47824
543.7377	46452
544.1485	44978
544.5594	43975
544.9702	43084
545.3810	42381
545.7919	41748
546.2028	40884
546.6136	40256
547.0247	39808
547.4357	39183
547.8466	38538
548.2576	37850
548.6686	37013
549.0797	36188
549.4907	35626
549.9019	35189
550.3129	34670
550.7241	34390
551.1353	34204
551.5464	33941
551.9576	33950
552.3688	34027
552.7800	34020
553.1913	33901
553.6025	33641
554.0139	33309
554.4252	33047
554.8365	32798
555.2480	32520
555.6594	32255
556.0708	32143
556.4822	31909
556.8937	31393
557.3052	31029
557.7167	30947
558.1282	30962
558.5397	31037
558.9513	31176
559.3629	31343
559.7745	31360
560.1861	31429
560.5978	31639
561.0095	31883
561.4211	32313
561.8328	32642
562.2446	33119
562.6563	33358
563.0681	33689
563.4799	34266
563.8917	34736
564.3035	35261
564.7153	35835
565.1273	36353
565.5392	36800
565.9510	37250
566.3631	37844
566.7750	38330
567.1870	38441
567.5990	38558
568.0110	38741
568.4231	39040
568.8352	39069
569.2473	39474
569.6594	39941
570.0715	40244
570.4837	40445
570.8958	40903
571.3080	41027
571.7203	41200
572.1324	41353
572.5447	41650
572.9570	41739
573.3693	41977
573.7816	41792
574.1940	41444
574.6063	41330
575.0186	41269
575.4310	41152
575.8435	40885
576.2559	40377
576.6684	39853
577.0809	39262
577.4934	38798
577.9059	38331
578.3184	37898
578.7310	37584
579.1436	37304
579.5562	36797
579.9688	36321
580.3815	36309
580.7941	36278
581.2068	36139
581.6195	36037
582.0323	36005
582.4450	35974
582.8578	36012
583.2705	35953
583.6833	35990
584.0961	35867
584.5090	35801
584.9219	35892
585.3347	36121
585.7476	36207
586.1605	36212
586.5735	36426
586.9865	36546
587.3995	36780
587.8125	36969
588.2256	37125
588.6385	37247
589.0516	37272
589.4647	37461
589.8778	37672
590.2910	37861
590.7042	38151
591.1173	38403
591.5305	38539
591.9437	38586
592.3569	38730
592.7701	38911
593.1834	39229
593.5967	39606
594.0099	39962
594.4233	40516
594.8366	40822
595.2500	41294
595.6634	41650
596.0768	41936
596.4902	42204
596.9036	42217
597.3171	42048
597.7305	41701
598.1440	41215
598.5576	40656
598.9711	40082
599.3847	39564
599.7983	39227
600.2119	38756
600.6255	38586
601.0391	38998
601.4528	39297
601.8665	39803
602.2802	40394
602.6939	41118
603.1076	41679
603.5214	42083
603.9351	42287
604.3489	42346
604.7627	42736
605.1765	42723
605.5903	42562
606.0042	42154
606.4180	41449
606.8320	40581
607.2459	39718
607.6599	38809
608.0738	37407
608.4877	35595
608.9017	33320
609.3158	30868
609.7299	28226
610.1439	25543
610.5580	23081
610.9721	20849
611.3862	18953
611.8003	17531
612.2144	16661
612.6287	16143
613.0428	15870
613.4570	16204
613.8713	17149
614.2855	18670
614.6998	20364
615.1140	22185
615.5283	23994
615.9426	25330
616.3570	26514
616.7714	27649
617.1857	28443
617.6001	28907
618.0145	29328
618.4290	29595
618.8433	30179
619.2578	30756
619.6723	31272
620.0868	31651
620.5013	32092
620.9159	32379
621.3305	32648
621.7450	32793
622.1596	32962
622.5742	33015
622.9889	33246
623.4036	33393
623.8182	33642
624.2329	33996
624.6476	34232
625.0623	34324
625.4771	34345
625.8918	34468
626.3066	34504
626.7214	34341
627.1362	34188
627.5510	33933
627.9659	33396
628.3807	32917
628.7957	32454
629.2105	32013
629.6254	31419
630.0404	30901
630.4553	30445
630.8703	30077
631.2853	29879
631.7003	29744
632.1154	29614
632.5304	29400
632.9454	29076
633.3605	28730
633.7756	28377
634.1907	28140
634.6060	27782
635.0211	27518
635.4363	27307
635.8515	27037
636.2667	26329
636.6819	25050
637.0971	23373
637.5124	21278
637.9277	19048
638.3430	16710
638.7582	14363
639.1736	12088
639.5889	9777
640.0043	7597
640.4197	5695
640.8350	4175
641.2505	3183
641.6660	2696
642.0814	2604
642.4969	2734
642.9124	2947
643.3279	3298
643.7433	3737
644.1589	4246
644.5745	4817
644.9901	5489
645.4057	6265
645.8213	7157
646.2369	8140
646.6526	9237
647.0683	10272
647.4839	11310
647.8996	12358
648.3153	13327
648.7311	14211
649.1468	15073
649.5625	15810
649.9783	16575
650.3941	17298
650.8099	18098
651.2258	19045
651.6416	20077
652.0574	20829
652.4733	21534
652.8892	22137
653.3052	22701
653.7211	23294
654.1371	23918
654.5530	24672
654.9691	25368
655.3850	25801
655.8010	25932
656.2171	25878
656.6332	25774
657.0493	25847
657.4653	26193
657.8815	26678
658.2975	26939
658.7137	27099
659.1298	27439
659.5460	27754
659.9622	27860
660.3784	27714
660.7946	27524
661.2108	27167
661.6271	26450
662.0433	25658
662.4596	24978
662.8759	24329
663.2922	23856
663.7086	23295
664.1249	22912
664.5414	22648
664.9577	22476
665.3741	22395
665.7905	22334
666.2069	22327
666.6234	22315
667.0399	22390
667.4564	22481
667.8729	22642
668.2894	22781
668.7059	23020
669.1225	23224
669.5391	23469
669.9556	23908
670.3722	24257
670.7888	24548
671.2054	24812
671.6221	25184
672.0387	25407
672.4554	25573
672.8721	25806
673.2888	25984
673.7055	26312
674.1223	26638
674.5390	26747
674.9558	26730
675.3726	26791
675.7894	26651
676.2062	26522
676.6230	26490
677.0399	26356
677.4568	26032
677.8737	25307
678.2906	24326
678.7075	23260
679.1245	22017
679.5414	20507
679.9583	18815
680.3753	16940
680.7923	15160
681.2094	13481
681.6263	11927
682.0434	10430
682.4604	9205
682.8775	8283
683.2946	7593
683.7117	6986
684.1288	6574
684.5459	6336
684.9631	6271
685.3802	6313
685.7974	6465
686.2146	6760
686.6318	7233
687.0491	7774
687.4663	8401
687.8835	8920
688.3008	9363
688.7181	9669
689.1354	9876
689.5528	9864
689.9701	9975
690.3875	10106
690.8048	10295
691.2222	10785
691.6396	11238
692.0570	11949
692.4744	12855
692.8918	13857
693.3093	14954
693.7267	16001
694.1443	17050
694.5618	17935
694.9793	18711
695.3968	19454
695.8143	20215
696.2319	21205
696.6495	22257
697.0671	23271
697.4847	24353
697.9023	25296
698.3200	26092
698.7376	26693
699.1553	27237
699.5729	27425
699.9907	27256
700.4084	26824
700.8261	26500
701.2438	26034
701.6616	25593
702.0793	25156
702.4971	24794
702.9149	24394
703.3328	23980
703.7506	23748
704.1684	23607
704.5863	23499
705.0042	23423
705.4220	23313
705.8399	23129
706.2578	23260
706.6757	23411
707.0937	23542
707.5116	23719
707.9296	23946
708.3476	24246
708.7656	24547
709.1837	24917
709.6017	25320
710.0197	25582
710.4378	25856
710.8558	26266
711.2739	26533
711.6921	26630
712.1102	26610
712.5283	26721
712.9465	27021
713.3646	27132
713.7828	27178
714.2009	27184
714.6191	27206
715.0374	27244
715.4556	27345
715.8738	27272
716.2921	27132
716.7104	27027
717.1286	26789
717.5469	26633
717.9652	26410
718.3835	26088
718.8019	25697
719.2203	25446
719.6387	25252
720.0571	24941
720.4755	24657
720.8939	24447
721.3123	24222
721.7307	23952
722.1492	23778
722.5677	23739
722.9862	23615
723.4047	23480
723.8231	23351
724.2416	23344
724.6602	23435
725.0787	23442
725.4973	23592
725.9159	23658
726.3345	23674
726.7531	23882
727.1717	24055
727.5903	24221
728.0089	24285
728.4276	24369
728.8463	24453
729.2650	24598
729.6837	24507
730.1024	24484
730.5211	24377
730.9399	24327
731.3586	24513
731.7774	24724
732.1962	24892
732.6149	25095
733.0337	25110
733.4525	24780
733.8714	24363
734.2902	23898
734.7090	23552
735.1280	23204
735.5469	22733
735.9658	22270
736.3846	21968
736.8036	21797
737.2225	21869
737.6415	21788
738.0604	21750
738.4794	21990
738.8984	22151
739.3174	22293
739.7364	22319
740.1554	22309
740.5745	22140
740.9935	21940
741.4126	21908
741.8317	21873
742.2508	21675
742.6699	21502
743.0890	21407
743.5081	21313
743.9272	21157
744.3464	21110
744.7656	20995
745.1848	20935
745.6039	20827
746.0232	20782
746.4424	20737
746.8617	20754
747.2809	20795
747.7001	20891
748.1194	20878
748.5387	20883
748.9580	20859
749.3773	20964
749.7966	20932
750.2159	20828
750.6353	20813
751.0546	20760
751.4741	20636
751.8935	20496
752.3128	20415
752.7322	20420
753.1517	20303
753.5711	20175
753.9905	20130
754.4100	19974
754.8295	19880
755.2489	19657
755.6685	19511
756.0880	19508
756.5074	19371
756.9269	19226
757.3466	19175
757.7661	19201
758.1857	19192
758.6052	19258
759.0248	19322
759.4445	19416
759.8640	19392
760.2837	19462
760.7033	19589
761.1230	19620
761.5427	19727
761.9623	20240
762.3820	21022
762.8017	22167
763.2215	23197
763.6412	24101
764.0609	24647
764.4807	24766
764.9005	24629
765.3202	24104
765.7400	23372
766.1597	22523
766.5796	21496
766.9994	20519
767.4192	19617
767.8390	18872
768.2589	18217
768.6788	17682
769.0987	17275
769.5186	16992
769.9385	16704
770.3584	16512
770.7783	16262
771.1982	16164
771.6182	16097
772.0381	15955
772.4581	15811
772.8781	15732
773.2981	15582
773.7181	15452
774.1381	15385
774.5582	15326
774.9782	15145
775.3982	14991
775.8183	14818
776.2384	14649
776.6584	14507
777.0785	14389
777.4987	14274
777.9188	14231
778.3389	14176
778.7590	14068
779.1792	14031
779.5994	14061
780.0196	14025
780.4398	13988
780.8599	13981
781.2801	13983
781.7004	13978
782.1206	13854
782.5408	13677
782.9611	13556
783.3813	13471
783.8016	13486
784.2219	13435
784.6422	13435
785.0625	13314
785.4828	13208
785.9032	13163
786.3235	13177
786.7438	13187
787.1642	13343
787.5846	13530
788.0050	13734
788.4254	13856
788.8458	13907
789.2662	13912
789.6866	13756
790.1070	13496
790.5275	13410
790.9480	13235
791.3685	13089
791.7889	12921
792.2094	12714
792.6299	12525
793.0504	12392
793.4709	12318
793.8915	12287
794.3120	12241
794.7325	12168
795.1531	12166
795.5737	12269
795.9943	12302
796.4149	12357
796.8355	12447
797.2562	12581
797.6768	12603
798.0974	12562
798.5180	12478
798.9387	12316
799.3593	12291
799.7800	12201
800.2007	12031
800.6214	11997
801.0421	11881
801.4629	11769
801.8836	11709
802.3043	11706
802.7251	11675
803.1458	11581
803.5667	11500
803.9874	11458
804.4081	11435
804.8290	11466
805.2498	11488
805.6706	11518
806.0914	11492
806.5122	11504
806.9331	11514
807.3540	11453
807.7749	11376
808.1957	11364
808.6166	11279
809.0375	11254
809.4584	11143
809.8793	11021
810.3003	10942
810.7212	10859
811.1422	10807
811.5632	10806
811.9841	10735
812.4051	10663
812.8261	10550
813.2471	10505
813.6682	10439
814.0891	10400
814.5101	10417
814.9312	10492
815.3522	10495
815.7733	10527
816.1943	10606
816.6154	10766
817.0365	10913
817.4576	11078
817.8787	11246
818.2999	11485
818.7209	11893
819.1421	12520
819.5632	13153
819.9844	14066
820.4055	15342
820.8267	17165
821.2479	20264
821.6691	26079
822.0902	34005
822.5115	42482
822.9326	47944
823.3539	51187
823.7752	52248
824.1964	49937
824.6177	46501
825.0389	42612
825.4601	38571
825.8814	34900
826.3027	32340
826.7241	31410
827.1453	31407
827.5667	31563
827.9880	31225
828.4093	29979
828.8306	28032
829.2520	25814
829.6734	23608
830.0948	21312
830.5161	18961
830.9375	17020
831.3589	15509
831.7803	14414
832.2018	13862
832.6232	14011
833.0446	14970
833.4660	16379
833.8875	17830
834.3089	18973
834.7304	19353
835.1519	18950
835.5734	18070
835.9949	17087
836.4164	15904
836.8378	14690
837.2594	13507
837.6809	12381
838.1025	11391
838.5240	10654
838.9455	10141
839.3671	10007
839.7886	10092
840.2102	10292
840.6319	10424
841.0535	10387
841.4751	10180
841.8967	9776
842.3182	9292
842.7399	8891
843.1615	8465
843.5831	8061
844.0048	7674
844.4265	7334
844.8481	7028
845.2698	6810
845.6915	6615
846.1133	6487
846.5350	6312
846.9567	6166
847.3784	6072
847.8001	6008
848.2219	5910
848.6436	5809
849.0653	5696
849.4871	5627
849.9088	5605
850.3306	5605
850.7524	5512
851.1742	5454
851.5960	5415
852.0178	5372
852.4397	5312
852.8615	5263
853.2833	5225
853.7051	5167
854.1270	5097
854.5488	5081
854.9707	5049
855.3926	5099
855.8144	5089
856.2363	5009
856.6582	4947
857.0801	4956
857.5021	4951
857.9240	4953
858.3459	4935
858.7678	4937
859.1897	4928
859.6117	4899
860.0337	4871
860.4556	4912
860.8776	4914
861.2995	4862
861.7216	4857
862.1435	4917
862.5655	4887
862.9875	4873
863.4095	4944
863.8316	4997
864.2536	4993
864.6757	5028
865.0977	5045
865.5198	5073
865.9418	5079
866.3638	5122
866.7859	5152
867.2080	5134
867.6301	5109
868.0521	5104
868.4743	5110
868.8964	5196
869.3185	5268
869.7407	5279
870.1628	5274
870.5849	5317
871.0070	5337
871.4292	5374
871.8513	5413
872.2735	5473
872.6957	5517
873.1179	5548
873.5400	5570
873.9623	5597
874.3845	5624
874.8067	5657
875.2289	5687
875.6511	5808
876.0733	5972
876.4955	6111
876.9178	6217
877.3401	6401
877.7623	6623
878.1846	6992
878.6068	7451
879.0291	8165
879.4514	9291
879.8737	11188
880.2960	14402
880.7183	19990
881.1406	26939
881.5629	33015
881.9852	38831
882.4076	40351
882.8299	39489
883.2523	36889
883.6746	33516
884.0969	29747
884.5193	25841
884.9416	22192
885.3641	18943
885.7865	16218
886.2088	14046
886.6312	12425
887.0536	11142
887.4760	10182
887.8984	9430
888.3209	8801
888.7432	8342
889.1656	7971
889.5881	7595
890.0106	7407
890.4330	7293
890.8555	7214
891.2780	7058
891.7004	6982
892.1229	6938
892.5454	6942
892.9678	7030
893.3904	7373
893.8129	8131
894.2353	9390
894.6578	10871
895.0804	12234
895.5029	12865
895.9254	12662
896.3480	12052
896.7706	11233
897.1931	10380
897.6156	9573
898.0382	8774
898.4608	8134
898.8833	7523
899.3059	6958
899.7284	6506
900.1510	6136
900.5736	5798
900.9962	5591
901.4188	5482
901.8415	5421
902.2640	5485
902.6867	5896
903.1093	6878
903.5319	8613
903.9546	10546
904.3773	12158
904.7999	12879
905.2225	12552
905.6451	11624
906.0679	10470
906.4905	9392
906.9132	8365
907.3359	7340
907.7586	6501
908.1813	5822
908.6040	5292
909.0267	4898
909.4494	4643
909.8721	4446
910.2948	4310
910.7175	4200
911.1403	4152
911.5630	4168
911.9857	4191
912.4085	4218
912.8312	4316
913.2540	4478
913.6768	4750
914.0995	5185
914.5223	6050
914.9451	7679
915.3679	10183
915.7906	12725
916.2134	14689
916.6362	15512
917.0590	15101
917.4818	13918
917.9046	12570
918.3274	11188
918.7503	9899
919.1731	8589
919.5959	7470
920.0188	6539
920.4417	5844
920.8645	5256
921.2873	4872
921.7101	4525
922.1331	4211
922.5558	3982
922.9788	3777
923.4016	3567
923.8245	3419
924.2474	3270
924.6703	3105
925.0932	2975
925.5161	2896
925.9390	2804
926.3619	2752
926.7848	2667
927.2077	2601
927.6306	2561
928.0535	2497
928.4764	2471
928.8994	2457
929.3223	2420
929.7454	2427
930.1683	2411
930.5912	2383
931.0142	2362
931.4371	2309
931.8601	2260
932.2831	2221
932.7060	2202
933.1290	2193
933.5520	2169
933.9749	2159
934.3979	2137
934.8209	2142
935.2440	2146
935.6670	2188
936.0900	2297
936.5130	2439
936.9360	2571
937.3590	2688
937.7821	2746
938.2051	2764
938.6281	2753
939.0511	2714
939.4741	2631
939.8972	2559
940.3203	2472
940.7433	2368
941.1664	2279
941.5894	2189
942.0125	2102
942.4355	2043
942.8586	2008
943.2817	1973
943.7048	1976
944.1279	2000
944.5510	2018
944.9741	2018
945.3972	2022
945.8202	2023
946.2433	2020
946.6665	2004
947.0895	1999
947.5126	1987
947.9358	1971
948.3589	1959
948.7820	1964
949.2051	2008
949.6283	2066
950.0514	2100
950.4745	2107
950.8977	2087
951.3208	2068
951.7440	2010
952.1672	1918
952.5903	1820
953.0135	1696
953.4366	1629
953.8597	1535
954.2829	1445
954.7062	1358
955.1293	1279
955.5524	1242
955.9756	1172
956.3988	1141
956.8220	1103
957.2452	1044
957.6684	1015
958.0916	989
958.5148	963
958.9380	929
959.3612	920
959.7844	912
960.2076	908
960.6309	894
961.0541	871
961.4773	857
961.9005	854
962.3237	848
962.7469	830
963.1702	831
963.5934	833
964.0167	826
964.4399	811
964.8632	821
965.2864	831
965.7097	829
966.1329	836
966.5562	843
966.9794	853
967.4026	880
967.8259	909
968.2492	941
968.6725	947
969.0958	956
969.5190	971
969.9423	967
970.3656	965
970.7889	955
971.2122	955
971.6355	950
972.0588	929
972.4820	931
972.9053	938
973.3286	920
973.7519	896
974.1752	898
974.5986	911
975.0219	892
975.4452	897
975.8685	906
976.2918	942
976.7151	995
977.1384	1055
977.5617	1172
977.9850	1349
978.4084	1674
978.8317	2116
979.2551	2548
979.6783	2822
980.1017	2862
980.5251	2685
980.9484	2371
981.3718	2048
981.7951	1740
982.2184	1493
982.6418	1272
983.0651	1098
983.4885	952
983.9119	840
984.3351	756
984.7585	715
985.1819	658
985.6053	626
986.0287	628
986.4520	624
986.8754	615
987.2988	599
987.7220	605
988.1455	655
988.5688	679
988.9922	702
989.4156	729
989.8389	776
990.2623	843
990.6857	1032
991.1091	1335
991.5325	1767
991.9559	2197
992.3793	2473
992.8027	2520
993.2261	2412
993.6494	2223
994.0729	2009
994.4963	1776
994.9196	1550
995.3430	1354
995.7664	1181
996.1898	1026
996.6132	909
997.0367	835
997.4601	762
997.8835	705
998.3069	667
998.7303	638
999.1537	621
999.5771	593
1000.0010	578
1000.4240	568
1000.8470	567
1001.2710	570
1001.6940	560
1002.1180	561
1002.5410	564
1002.9640	556
1003.3880	545
1003.8110	545
1004.2350	535
1004.6580	523
1005.0820	525
1005.5050	529
1005.9280	536
1006.3520	536
1006.7750	532
1007.1990	531
1007.6220	520
1008.0460	536
1008.4690	555
1008.8930	555
1009.3160	569
1009.7390	568
1010.1630	595
1010.5860	606
1011.0100	626
1011.4330	634
1011.8570	639
1012.2800	629
1012.7040	608
1013.1270	580
1013.5500	574
1013.9740	565
1014.3970	537
1014.8210	513
1015.2440	502
1015.6680	500
1016.0910	494
1016.5150	462
1016.9380	448
1017.3610	452
1017.7850	434
1018.2080	428
1018.6320	429
1019.0550	417
1019.4790	417
1019.9020	419
1020.3260	414
1020.7490	406
1021.1720	393
1021.5960	380
1022.0200	391
1022.4430	387
1022.8660	378
1023.2900	367
1023.7130	362
1024.1370	366
1024.5600	369
1024.9840	363
1025.4070	354
1025.8310	352
1026.2540	368
1026.6770	368
1027.1010	368
